Black Body Radiation Experiment Wed, Jan 21, 2026 9:40 AM
Sensor Position (Degrees)	Light Intensity (Volts)
0.01033	0.00507
0.01033	0.00206
0.01033	0.00005
0.01033	-0.00112
0.01033	-0.00162
0.01033	-0.00160
0.01033	-0.00123
0.01033	-0.00130
0.01033	-0.00050
0.01033	0.00019
0.01033	0.00071
0.01033	0.00055
0.01033	0.00114
0.01033	0.00187
0.01033	0.00251
0.01033	0.00304
0.01033	0.00331
0.01033	0.00407
0.01033	0.00436
0.01033	0.00434
0.01033	0.00445
0.01033	0.00487
0.01033	0.00516
0.01033	0.00478
0.01033	0.00509
0.01033	0.00479
0.01033	0.00428
0.01033	0.00387
0.01033	0.00349
0.01033	0.00274
0.01033	0.00216
0.01033	0.00224
0.01033	0.00288
0.01033	0.00377
0.01033	0.00420
0.01033	0.00481
0.01033	0.00524
0.01033	0.00481
0.01033	0.00482
0.01033	0.00472
0.01033	0.00482
0.01033	0.00425
0.01033	0.00439
0.01033	0.00510
0.01033	0.00560
0.01033	0.00557
0.01033	0.00591
0.01033	0.00653
0.01033	0.00644
0.01033	0.00720
0.01033	0.00809
0.01033	0.00871
0.01033	0.00893
0.01033	0.00857
0.01033	0.00877
0.01033	0.00862
0.01033	0.00852
0.01033	0.00784
0.01033	0.00775
0.01033	0.00670
0.01033	0.00581
-0.01033	0.00691
-0.03100	0.00666
-0.03100	0.00615
-0.04133	0.00463
-0.05167	0.00446
-0.05167	0.00460
-0.05167	0.00459
-0.04133	0.00532
-0.02067	0.00510
0.01033	0.00554
0.01033	0.00495
0.02067	0.00535
0.02067	0.00684
0.02067	0.00693
0.03100	0.00714
0.02067	0.00632
0.02067	0.00645
0.02067	0.00587
0.01033	0.00607
-0.01033	0.00568
-0.02067	0.00580
-0.04133	0.00563
-0.05167	0.00574
-0.06200	0.00627
-0.06200	0.00742
-0.04133	0.00867
-0.03100	0.00947
0.01033	0.00833
0.01033	0.00733
0.04133	0.00741
0.06200	0.00748
0.06200	0.00640
0.07233	0.00618
0.07233	0.00575
0.08266	0.00578
0.09300	0.00582
0.11366	0.00703
0.12400	0.00761
0.13433	0.00745
0.13433	0.00657
0.13433	0.00644
0.13433	0.00746
0.13433	0.00770
0.13433	0.00687
0.13433	0.00560
0.13433	0.00570
0.13433	0.00535
0.14466	0.00501
0.15500	0.00479
0.16533	0.00465
0.16533	0.00463
0.19633	0.00482
0.21699	0.00494
0.25833	0.00564
0.27899	0.00620
0.36166	0.00563
0.42365	0.00469
0.45465	0.00566
0.53732	0.00525
0.59931	0.00515
0.63031	0.00481
0.71298	0.00558
0.77498	0.00601
0.81631	0.00600
0.91964	0.00638
1.00230	0.00650
1.05397	0.00626
1.17796	0.00495
1.28129	0.00463
1.33296	0.00460
1.51895	0.00465
1.66361	0.00484
1.73595	0.00397
1.98394	0.00505
2.14927	0.00545
2.23193	0.00519
2.38693	0.00538
2.46959	0.00506
2.50059	0.00511
2.56259	0.00507
2.59359	0.00554
2.60392	0.00651
2.62459	0.00755
2.63492	0.00734
2.63492	0.00687
2.66592	0.00701
2.70725	0.00697
2.78991	0.00630
2.87258	0.00579
2.91391	0.00587
3.05857	0.00577
3.16190	0.00518
3.21357	0.00508
3.38923	0.00589
3.48223	0.00540
3.52356	0.00532
3.65789	0.00548
3.71988	0.00500
3.76122	0.00596
3.83355	0.00491
3.86455	0.00446
3.88521	0.00495
3.94721	0.00521
3.99888	0.00505
4.02987	0.00546
4.10221	0.00532
4.16420	0.00497
4.18487	0.00615
4.27787	0.00617
4.37086	0.00617
4.40186	0.00705
4.52586	0.00629
4.61886	0.00622
4.66019	0.00759
4.76352	0.00741
4.84618	0.00691
4.87718	0.00694
4.98051	0.00655
5.04251	0.00645
5.07351	0.00626
5.15617	0.00526
5.21817	0.00536
5.24917	0.00471
5.34217	0.00456
5.41450	0.00460
5.45583	0.00575
5.57983	0.00474
5.67282	0.00503
5.72449	0.00605
5.86915	0.00633
5.99315	0.00657
6.03448	0.00645
6.17914	0.00598
6.28247	0.00586
6.32380	0.00513
6.46847	0.00557
6.55113	0.00606
6.59246	0.00661
6.68546	0.00650
6.74746	0.00684
6.76812	0.00771
6.85079	0.00794
6.91279	0.00760
6.95412	0.00686
7.08845	0.00608
7.18144	0.00561
7.23311	0.00468
7.42944	0.00438
7.54310	0.00461
7.61543	0.00426
7.82209	0.00405
7.95642	0.00463
8.03908	0.00549
8.22508	0.00594
8.34907	0.00600
8.41107	0.00713
8.57640	0.00833
8.67973	0.00831
8.73140	0.00880
8.88639	0.00957
8.97939	0.00928
9.03105	0.00946
9.17571	0.00937
9.26871	0.00895
9.32038	0.00818
9.46504	0.00696
9.55804	0.00627
9.60970	0.00580
9.74403	0.00518
9.83703	0.00432
9.89903	0.00507
10.00236	0.00585
10.08502	0.00598
10.11602	0.00751
10.19868	0.00792
10.26068	0.00734
10.28135	0.00824
10.35368	0.00743
10.39501	0.00700
10.40534	0.00741
10.44668	0.00678
10.47767	0.00677
10.48801	0.00782
10.52934	0.00733
10.56034	0.00739
10.57067	0.00864
10.62234	0.00843
10.66367	0.00746
10.68433	0.00820
10.75667	0.00737
10.81866	0.00757
10.84966	0.00867
10.95299	0.00764
11.03566	0.00784
11.07699	0.00845
11.20099	0.00755
11.28365	0.00794
11.32498	0.00947
11.42831	0.00852
11.51098	0.00784
11.55231	0.00804
11.66597	0.00765
11.75897	0.00820
11.80030	0.00891
11.94496	0.00905
12.06896	0.00924
12.13096	0.00986
12.31695	0.00901
12.46161	0.00967
12.52361	0.00974
12.75094	0.00876
12.89560	0.00850
12.96793	0.00749
13.17459	0.00669
13.31925	0.00656
13.38125	0.00639
13.59824	0.00656
13.74291	0.00666
13.80490	0.00741
13.98057	0.00788
14.08390	0.00909
14.12523	0.00804
14.25956	0.00822
14.33189	0.00823
14.37322	0.00794
14.46622	0.00786
14.51788	0.00741
14.53855	0.00672
14.60055	0.00711
14.65221	0.00787
14.67288	0.00893
14.73488	0.00980
14.78654	0.01041
14.80721	0.01010
14.90020	0.01090
14.96220	0.01105
14.99320	0.01149
15.09653	0.01085
15.17920	0.01045
15.22053	0.01006
15.34452	0.01057
15.44785	0.01143
15.49952	0.01171
15.66485	0.01295
15.78884	0.01329
15.87151	0.01366
16.16083	0.01433
16.31583	0.01495
16.45016	0.01536
16.64648	0.01655
16.77048	0.01836
16.85314	0.02020
16.98747	0.02243
17.02880	0.02522
17.08047	0.02766
17.20447	0.03036
17.26646	0.03250
17.32846	0.03625
17.44212	0.03935
17.52479	0.04336
17.60745	0.04777
17.75212	0.05291
17.82445	0.05940
17.88644	0.06621
18.06211	0.07357
18.16544	0.08210
18.22743	0.09233
18.45476	0.10349
18.79942	0.11680
19.18036    0.12997
19.44902    0.14245
19.57302    0.15467
19.69701    0.16136
19.94499    0.16534
20.10359    0.16723
20.22400    0.16386
20.47199    0.15857
20.57532    0.15139
20.61665    0.14295
20.74065    0.13533
20.81298    0.12856
20.84398    0.12121
20.91631    0.11585
20.97831    0.10967
21.00930    0.10430
21.05868	0.07782
21.11034	0.07192
21.25501	0.06755
21.35834	0.06226
21.38934	0.05678
21.50300	0.05213
21.57533	0.04725
21.60633	0.04339
21.73032	0.03957
21.82332	0.03683
21.86465	0.03280
21.99898	0.03006
22.09198	0.02736
22.14365	0.02573
22.27797	0.02424
22.39164	0.02280
22.43297	0.02213
22.56730	0.02060
22.66030	0.01906
22.70163	0.01838
22.82562	0.01769
22.92895	0.01687
22.95995	0.01535
23.08395	0.01472
23.19761	0.01343
23.24928	0.01314
23.43527	0.01232
23.57993	0.01212
23.63160	0.01281
23.83826	0.01191
23.99325	0.01169
24.05525	0.01196
24.24125	0.01247
24.36524	0.01273
24.40658	0.01167
24.55124	0.01064
24.66490	0.01011
24.71657	0.01010
24.88189	0.01009
25.01622	0.01034
25.07822	0.01027
25.28488	0.00967
25.42954	0.00942
25.48121	0.01027
25.68787	0.01035
25.81186	0.01038
25.86353	0.00908
26.07019	0.00919
26.19419	0.01019
26.24585	0.01116
26.40085	0.01224
26.48351	0.01284
26.52484	0.01205
26.61784	0.01202
26.65917	0.01210
26.66950	0.01267
26.72117	0.01201
26.75217	0.01144
26.76250	0.00974
26.80383	0.00916
26.83483	0.00951
26.84517	0.01023
26.87617	0.01106
26.89683	0.01141
26.91750	0.01062
26.94850	0.01060
26.96916	0.01119
26.97950	0.01121
27.02083	0.01182
27.06216	0.01161
27.08283	0.01092
27.14482	0.01054
27.20682	0.01122
27.22749	0.01196
27.29982	0.01259
27.34115	0.01242
27.35148	0.01210
27.38248	0.01135
27.41348	0.01168
27.42381	0.01172
27.46515	0.01182
27.50648	0.01108
27.53748	0.01122
27.59948	0.01111
27.67181	0.01161
27.70281	0.01196
27.81647	0.01214
27.88880	0.01235
27.91980	0.01281
28.03346	0.01307
28.10579	0.01308
28.14713	0.01317
28.25046	0.01292
28.35379	0.01297
28.38478	0.01296
28.51911	0.01224
28.62244	0.01237
28.66378	0.01211
28.80844	0.01316
28.90144	0.01342
28.95310	0.01404
29.10810	0.01397
29.24242	0.01320
29.30442	0.01340
29.48008	0.01350
29.59375	0.01335
29.63508	0.01298
29.74874	0.01332
29.81074	0.01344
29.84174	0.01382
29.90374	0.01411
29.93474	0.01393
29.94507	0.01330
29.98640	0.01249
30.02773	0.01257
30.04840	0.01209
30.16206	0.01222
30.27573	0.01202
30.33772	0.01230
30.56505	0.01303
30.73038	0.01250
30.81304	0.01273
31.07137	0.01208
31.22636	0.01179
31.28836	0.01093
31.47436	0.01075
31.57769	0.01040
31.61902	0.01002
31.73268	0.01063
31.78435	0.01080
31.81534	0.01118
31.91868	0.01180
32.00134	0.01152
32.04267	0.01209
32.17700	0.01214
32.30100	0.01147
32.36299	0.01137
32.52832	0.01076
32.66265	0.00996
32.71432	0.01037
32.87965	0.01020
32.98298	0.01031
33.02431	0.00984
33.14830	0.01024
33.22063	0.01087
33.25163	0.01149
33.34463	0.01165
33.40663	0.01153
33.43763	0.01113
33.52029	0.01014
33.57196	0.00979
33.59262	0.01015
33.67529	0.00952
33.75795	0.00980
33.78895	0.00951
33.91295	0.01064
33.98528	0.01050
34.02661	0.01035
34.16094	0.01028
34.25394	0.01091
34.30560	0.01074
34.47093	0.01112
34.57426	0.01115
34.62592	0.01132
34.79125	0.01120
34.88425	0.01068
34.92558	0.01102
35.03924	0.01137
35.09091	0.01068
35.11158	0.01133
35.19424	0.01199
35.25624	0.01268
35.29757	0.01315
35.40090	0.01382
35.48356	0.01369
35.52490	0.01377
35.67989	0.01398
35.79355	0.01343
35.85555	0.01380
36.06221	0.01376
36.20688	0.01344
36.28954	0.01355
36.53753	0.01303
36.69253	0.01238
36.77519	0.01283
36.97152	0.01287
37.11618	0.01270
37.17818	0.01260
37.37451	0.01310
37.45717	0.01409
37.51917	0.01390
37.68450	0.01421
37.78783	0.01400
37.83949	0.01437
38.03582	0.01417
38.15981	0.01381
38.23215	0.01418
38.43881	0.01350
38.56280	0.01398
38.63513	0.01354
38.79013	0.01354
38.87279	0.01379
38.90379	0.01320
38.96579	0.01325
39.00712	0.01298
39.01745	0.01335
39.06912	0.01316
39.13112	0.01354
39.16212	0.01389
39.26545	0.01368
39.35844	0.01387
39.41011	0.01376
39.56510	0.01327
39.68910	0.01356
39.76143	0.01449
39.89576	0.01463
39.98876	0.01477
40.00942	0.01469
40.09209	0.01515
40.16442	0.01496
40.18508	0.01346
40.27808	0.01321
40.35041	0.01240
40.37108	0.01215
40.45374	0.01121
40.53641	0.01230
40.56741	0.01389
40.69140	0.01457
40.79473	0.01604
40.84640	0.01607
41.01173	0.01631
41.14606	0.01578
41.19772	0.01486
41.36305	0.01562
41.47671	0.01487
41.51804	0.01465
41.67304	0.01391
41.78670	0.01396
41.81770	0.01420
41.93136	0.01445
42.01403	0.01449
42.04503	0.01338
42.13802	0.01371
42.18969	0.01342
42.21036	0.01284
42.26202	0.01411
42.29302	0.01388
42.30335	0.01500
42.36535	0.01468
42.40668	0.01551
42.43768	0.01584
42.53068	0.01698
42.61334	0.01676
42.65467	0.01611
42.79934	0.01610
42.92333	0.01500
42.96467	0.01475
43.18166	0.01449
43.34699	0.01383
43.41932	0.01433
43.63631	0.01362
43.79131	0.01374
43.84297	0.01332
44.02897	0.01400
44.14263	0.01358
44.19429	0.01369
44.31829	0.01317
44.41129	0.01399
44.44229	0.01468
44.56628	0.01437
44.64895	0.01533
44.67995	0.01489
44.81427	0.01468
44.90727	0.01408
44.94860	0.01355
45.09327	0.01315
45.20693	0.01255
45.24826	0.01294
45.40326	0.01188
45.52725	0.01223
45.56858	0.01164
45.74425	0.01221
45.86824	0.01215
45.91991	0.01274
46.08523	0.01377
46.18857	0.01422
46.22990	0.01451
46.35389	0.01491
46.43656	0.01511
46.46756	0.01557
46.58122	0.01510
46.66388	0.01463
46.70522	0.01440
46.84988	0.01488
46.96354	0.01424
47.01521	0.01407
47.19087	0.01473
47.32520	0.01459
47.38719	0.01450
47.58352	0.01483
47.73852	0.01481
47.80051	0.01524
48.03817	0.01525
48.20350	0.01578
48.26550	0.01594
48.48249	0.01602
48.62716	0.01564
48.68915	0.01547
48.88548	0.01624
49.03014	0.01507
49.08181	0.01449
49.31947	0.01401
49.50546	0.01383
49.57779	0.01424
49.82579	0.01458
49.97045	0.01541
50.02211	0.01532
50.21844	0.01634
50.35277	0.01692
50.41477	0.01815
50.58010	0.01790
50.68343	0.01797
50.72476	0.01730
50.85909	0.01758
50.94175	0.01758
50.97275	0.01778
51.06575	0.01742
51.12774	0.01734
51.14841	0.01711
51.25174	0.01720
51.33441	0.01754
51.37574	0.01810
51.49973	0.01818
51.57206	0.01882
51.62373	0.01869
51.79939	0.01943
51.96472	0.01912
52.03705	0.01921
52.25404	0.01872
52.44004	0.01849
52.51237	0.01736
52.73969	0.01678
52.86369	0.01722
52.91536	0.01783
53.04969	0.01808
53.12202	0.01872
53.14268	0.01837
53.22535	0.01840
53.26668	0.01833
53.27701	0.01935
53.32868	0.01887
53.37001	0.01795
53.38034	0.01675
53.45267	0.01764
53.51467	0.01756
53.54567	0.01813
53.64900	0.01736
53.73166	0.01721
53.77300	0.01611
53.89699	0.01648
53.98999	0.01649
54.01066	0.01709
54.12432	0.01685
54.18632	0.01688
54.21732	0.01713
54.28965	0.01826
54.34131	0.01786
54.36198	0.01917
54.43431	0.01874
54.48597	0.01861
54.50664	0.01857
54.59964	0.01818
54.68230	0.01761
54.72363	0.01696
54.84763	0.01669
54.95096	0.01602
54.99229	0.01660
55.12662	0.01590
55.21962	0.01677
55.27128	0.01754
55.40561	0.01806
55.50894	0.01841
55.55027	0.01925
55.67427	0.01873
55.74660	0.01907
55.77760	0.01850
55.87060	0.01874
55.95326	0.01816
55.98426	0.01908
56.10826	0.01852
56.19092	0.01943
56.23225	0.01885
56.37692	0.01941
56.48025	0.01928
56.53191	0.01974
56.70757	0.02029
56.84190	0.02049
56.91423	0.02010
57.10023	0.01972
57.24489	0.01972
57.30689	0.02011
57.53421	0.02001
57.70987	0.01944
57.78220	0.01785
57.97853	0.01722
58.12319	0.01690
58.16453	0.01821
58.28852	0.01945
58.36085	0.01925
58.39185	0.01905
58.47452	0.01907
58.52618	0.01997
58.56751	0.02016
58.68118	0.02124
58.78451	0.02105
58.84651	0.02042
59.03250	0.02028
59.16683	0.01990
59.24949	0.01984
59.47682	0.01855
59.63181	0.01748
59.69381	0.01672
59.90047	0.01654
60.03480	0.01689
60.09680	0.01701
60.28279	0.01770
60.40679	0.01851
60.46879	0.01892
60.64445	0.01915
60.73745	0.01923
60.79944	0.01914
60.98544	0.01900
61.13010	0.01874
61.19210	0.01939
61.40909	0.02038
61.56409	0.02049
61.63642	0.01996
61.88441	0.02052
62.02907	0.02124
62.10140	0.02014
62.28740	0.01959
62.43206	0.01925
62.49406	0.01873
62.66972	0.01879
62.77305	0.01852
62.82471	0.01988
62.96938	0.02115
63.07271	0.02141
63.11404	0.02233
63.24837	0.02335
63.36203	0.02280
63.41370	0.02182
63.57902	0.02070
63.68235	0.01988
63.72369	0.01957
63.80635	0.01907
63.84768	0.01889
63.85802	0.01844
63.87868	0.01925
63.87868	0.01950
63.87868	0.01964
63.88902	0.01968
63.92001	0.01947
63.96135	0.02032
63.98201	0.02036
64.07501	0.02043
64.15767	0.02111
64.19901	0.02056
64.34367	0.02133
64.49866	0.02082
64.56066	0.02180
64.77765	0.02170
64.91198	0.02139
64.96365	0.02196
65.12898	0.02227
65.24264	0.02210
65.29430	0.02205
65.43897	0.02180
65.56296	0.02186
65.60430	0.02175
65.79029	0.02195
65.91429	0.02201
65.96595	0.02236
66.13128	0.02263
66.23461	0.02311
66.28627	0.02358
66.45160	0.02335
66.54460	0.02407
66.58593	0.02504
66.75126	0.02542
66.89592	0.02628
66.95792	0.02685
67.19558	0.02634
67.35057	0.02657
67.42291	0.02551
67.61923	0.02509
67.75356	0.02430
67.82589	0.02378
68.03255	0.02353
68.14622	0.02482
68.19788	0.02489
68.38388	0.02598
68.51820	0.02654
68.60087	0.02699
68.85919	0.02600
69.07619	0.02609
69.16918	0.02501
69.47917	0.02554
69.69617	0.02587
69.79950	0.02613
70.06816	0.02650
70.26448	0.02754
70.35748	0.02733
70.63647	0.02765
70.77080	0.02708
70.82247	0.02662
70.98779	0.02576
71.08079	0.02501
71.12212	0.02443
71.26679	0.02484
71.37012	0.02427
71.41145	0.02381
71.58711	0.02372
71.71111	0.02377
71.79377	0.02351
72.05209	0.02405
72.24842	0.02419
72.33109	0.02470
72.54808	0.02636
72.66174	0.02655
72.71341	0.02772
72.81674	0.02815
72.86840	0.02760
72.87874	0.02785
72.94073	0.02737
72.98207	0.02689
73.02340	0.02658
73.24039	0.02637
73.52972	0.02688
73.67438	0.02749
74.22203	0.02862
74.55268	0.02878
74.71801	0.02987
75.18300	0.02988
75.43099	0.02913
75.54465	0.02905
75.76165	0.02848
75.82364	0.02718
75.84431	0.02585
75.89598	0.00052
75.93731	-0.00808
76.78837    0.01765
76.87104    0.09318
76.97437    0.18071
77.04670    0.26870
77.28436    0.34736
77.54268    0.40509
77.70801    0.43726
78.23500    0.44126
78.41066    0.41131
78.54557    0.34797
78.63798    0.25243
78.64832    0.18041
78.66898    0.13756
78.75165    0.12402
78.81364    0.10562
78.86531    0.09314
79.04097    0.08426
79.23354	0.05385
79.39887	0.04949
79.83285	0.04725
80.12218	0.04418
80.24617	0.04262
80.56650	0.04113
80.75249	0.03918
80.82482	0.03824
80.96948	0.03718
81.02115	0.03545
81.04182	0.03453
81.10381	0.03369
81.15548	0.03341
81.19681	0.03354
81.36214	0.03398
81.59980	0.03276
81.73413	0.03298
82.06478	0.03152
82.29211	0.03060
82.38511	0.02908
82.62277	0.02828
82.74676	0.02787
82.79843	0.02827
82.91209	0.02916
82.95342	0.02942
82.96376	0.03040
82.97409	0.03014
82.97409	0.02976
82.98442	0.02959
83.06709	0.02925
83.18075	0.02809
83.28408	0.02748
83.71807	0.02804
84.06939	0.02797
84.24505	0.02872
84.63770	0.02904
84.93736	0.02866
85.06136	0.02760
85.37135	0.02701
85.48501	0.02758
85.52634	0.02738
85.55734	0.02708
85.55734	0.02666
85.55734	0.02790
85.62967	0.02824
85.73300	0.02827
85.84667	0.02926
85.91900	0.02961
86.18766	0.02989
86.38398	0.02942
86.49765	0.03054
86.85930	0.03146
87.12796	0.03110
87.27262	0.03163
87.75827	0.03176
88.05793	0.03210
88.21293	0.03102
88.51258	0.03070
88.60558	0.03074
88.60558	0.03093
88.59525	0.03105
88.60558	0.03089
88.60558	0.03131
88.60558	0.03125
88.61591	0.03108
88.61591	0.03142
88.64691	0.03165
88.67791	0.03243
88.82257	0.03228
88.95690	0.03306
89.03957	0.03372
89.42189	0.03411
89.78354	0.03407
89.96954	0.03344
90.54819	0.03206