Black Body Radiation Experiment Wed, Jan 21, 2026 9:45 AM
Sensor Position (Degrees)	Light Intensity (Volts)
-0.01033	-0.00060
-0.01033	-0.00042
-0.01033	-0.00027
-0.01033	-0.00014
-0.01033	-0.00002
-0.02067	0.00010
-0.02067	0.00023
-0.03100	0.00016
-0.03100	0.00001
-0.03100	0.00095
-0.03100	0.00180
-0.03100	0.00207
-0.03100	0.00184
-0.03100	0.00168
-0.02067	0.00133
-0.01033	0.00204
-0.01033	0.00165
-0.02067	0.00105
-0.03100	0.00057
-0.03100	0.00018
-0.04133	-0.00037
-0.05167	-0.00064
-0.04133	-0.00092
-0.04133	-0.00078
-0.02067	-0.00062
-0.01033	-0.00025
-0.01033	0.00023
-0.01033	0.00048
0.01033	0.00021
0.02067	0.00016
0.03100	-0.00010
0.04133	-0.00093
0.08266	-0.00067
0.10333	-0.00148
0.11366	-0.00255
0.16533	-0.00274
0.20666	-0.00242
0.23766	-0.00267
0.36166	-0.00287
0.48565	-0.00386
0.56832	-0.00406
0.97130	-0.00483
1.19863	-0.00466
1.28129	-0.00431
1.29163	-0.00309
1.28129	-0.00337
1.28129	-0.00372
1.28129	-0.00337
1.28129	-0.00302
1.28129	-0.00316
1.28129	-0.00317
1.29163	-0.00373
1.29163	-0.00418
1.29163	-0.00478
1.30196	-0.00426
1.31229	-0.00435
1.32263	-0.00461
1.33296	-0.00497
1.40529	-0.00549
1.48795	-0.00515
1.51895	-0.00483
1.63262	-0.00440
1.69461	-0.00420
1.72561	-0.00390
1.97361	-0.00416
2.24226	-0.00365
2.37659	-0.00303
2.75891	-0.00344
3.07924	-0.00377
3.22390	-0.00380
3.69922	-0.00394
4.04021	-0.00353
4.21587	-0.00399
4.61886	-0.00392
4.91851	-0.00424
5.03218	-0.00432
5.53849	-0.00523
5.94148	-0.00477
6.10681	-0.00541
6.71646	-0.00590
7.16078	-0.00628
7.41910	-0.00625
8.26641	-0.00637
8.80373	-0.00605
9.10338	-0.00542
9.88869	-0.00477
10.32268	-0.00396
10.55001	-0.00426
11.11832	-0.00420
11.53164	-0.00379
11.68664	-0.00412
12.21362	-0.00390
12.59594	-0.00386
12.77160	-0.00386
13.37092	-0.00452
13.76357	-0.00449
13.97023	-0.00477
14.54888	-0.00507
14.92087	-0.00472
15.10686	-0.00510
15.66485	-0.00453
16.04717	-0.00389
16.21250	-0.00332
16.63615	-0.00322
16.91514	-0.00198
17.03914	-0.00045
17.41113	0.00086
17.64879	0.00196
17.75212	0.00456
18.14477	0.00749
18.40309	0.01876
18.52709	0.03690
19.04374	0.06226
19.36407	0.09261
19.67406	0.12415
20.24237	0.15435
20.53170	0.18121
20.85202	0.19999
21.41000	0.20848
21.68899	0.20641
21.96798	0.19496
22.39164	0.17542
22.71196	0.15716
22.83596	0.13728
23.21828	0.11872
23.46627	0.10241
23.56960	0.08737
23.90026	0.07439
24.13792	0.06355
24.24125	0.05411
24.57190	0.04593
24.79923	0.03924
24.90256	0.03258
25.28488	0.02785
25.57421	0.02414
25.69820	0.01922
26.09086	0.01569
26.33885	0.01270
26.46284	0.00974
26.86583	0.00684
27.14482	0.00504
27.28949	0.00355
27.75447	0.00193
28.00246	0.00091
28.12646	-0.00021
28.44678	-0.00003
28.70511	-0.00080
28.81877	-0.00250
29.14943	-0.00283
29.35609	-0.00416
29.43875	-0.00416
29.70741	-0.00500
29.89340	-0.00474
30.00707	-0.00488
30.33772	-0.00438
30.60638	-0.00458
30.73038	-0.00403
31.10237	-0.00367
31.37103	-0.00435
31.50535	-0.00452
31.91868	-0.00416
32.18733	-0.00433
32.31133	-0.00412
32.65232	-0.00489
32.91064	-0.00459
33.04497	-0.00556
33.50996	-0.00577
33.83028	-0.00648
33.99561	-0.00624
34.42960	-0.00605
34.66726	-0.00645
34.78092	-0.00603
35.17357	-0.00558
35.43190	-0.00545
35.57656	-0.00550
35.95888	-0.00577
36.27921	-0.00578
36.47553	-0.00720
36.97152	-0.00744
37.26084	-0.00701
37.40550	-0.00703
37.84982	-0.00637
38.11848	-0.00583
38.26314	-0.00495
38.59380	-0.00464
38.83146	-0.00464
38.96579	-0.00514
39.38944	-0.00531
39.65810	-0.00562
39.79243	-0.00677
40.09209	-0.00654
40.28842	-0.00634
40.38141	-0.00686
40.68107	-0.00586
40.88773	-0.00471
40.97039	-0.00488
41.28038	-0.00452
41.45605	-0.00492
41.52838	-0.00575
41.80737	-0.00524
41.98303	-0.00576
42.07603	-0.00699
42.36535	-0.00665
42.57201	-0.00641
42.67534	-0.00690
43.00600	-0.00627
43.25399	-0.00602
43.38832	-0.00600
43.78097	-0.00430
44.01863	-0.00428
44.13230	-0.00507
44.49395	-0.00428
44.73161	-0.00420
44.83494	-0.00504
45.17593	-0.00434
45.41359	-0.00425
45.52725	-0.00497
45.86824	-0.00465
46.09557	-0.00465
46.18857	-0.00471
46.56055	-0.00369
46.80855	-0.00426
46.92221	-0.00468
47.28386	-0.00423
47.51119	-0.00450
47.61452	-0.00555
47.92451	-0.00588
48.14150	-0.00605
48.23450	-0.00584
48.53416	-0.00521
48.75115	-0.00463
48.88548	-0.00419
49.23680	-0.00399
49.44346	-0.00395
49.53646	-0.00322
49.84645	-0.00375
50.10478	-0.00408
50.22877	-0.00402
50.56976	-0.00386
50.74542	-0.00358
50.84875	-0.00412
51.15874	-0.00376
51.37574	-0.00418
51.48940	-0.00521
51.87172	-0.00679
52.11971	-0.00740
52.25404	-0.00681
52.61570	-0.00775
52.88436	-0.00681
52.99802	-0.00566
53.38034	-0.00517
53.63867	-0.00526
53.79366	-0.00559
54.16565	-0.00484
54.43431	-0.00556
54.56864	-0.00710
54.97163	-0.00844
55.26095	-0.00885
55.39528	-0.00818
55.81893	-0.00926
56.08759	-0.00867
56.22192	-0.00839
56.62491	-0.00811
56.89357	-0.00707
57.00723	-0.00684
57.42055	-0.00623
57.69954	-0.00653
57.83387	-0.00706
58.22652	-0.00727
58.49518	-0.00711
58.61918	-0.00700
59.03250	-0.00728
59.30116	-0.00751
59.44582	-0.00748
59.86947	-0.00802
60.17946	-0.00777
60.32413	-0.00824
60.74778	-0.00817
61.05777	-0.00805
61.21276	-0.00786
61.64675	-0.00884
61.96707	-0.00904
62.10140	-0.00813
62.59739	-0.00755
62.86605	-0.00813
63.01071	-0.00803
63.47569	-0.00856
63.80635	-0.00794
63.98201	-0.00862
64.49866	-0.00847
64.80865	-0.00956
64.98431	-0.01054
65.44930	-0.01161
65.79029	-0.01156
65.94528	-0.01069
66.66860	-0.01047
67.13358	-0.01050
67.37124	-0.01037
68.00155	-0.01014
68.36321	-0.00918
68.52854	-0.01004
69.01419	-0.00943
69.31385	-0.00970
69.46884	-0.00902
69.90283	-0.00830
70.20249	-0.00837
70.35748	-0.00802
70.76047	-0.00772
71.00846	-0.00842
71.15312	-0.00909
71.56644	-0.00956
71.84543	-0.00972
71.99010	-0.01110
72.39308	-0.01091
72.67208	-0.01054
72.84774	-0.01110
73.31272	-0.01079
73.63305	-0.01119
73.79837	-0.01100
74.30469	-0.01061
74.64568	-0.01038
74.81101	-0.00992
75.28633	-0.00982
75.58599	-0.00979
75.75131	-0.01405
76.18530	-0.03683
76.44363	-0.03223
76.58829	-0.00174
77.02227	0.05272
77.32193	0.10890
77.48726	0.15982
77.91091	0.20361
78.20024	0.23273
78.36557	0.24393
79.08888	0.23723
79.44020	0.20970
79.61586	0.15939
80.11184	0.09626
80.43217	0.06759
80.58716	0.05192
81.04182	0.04674
81.36214	0.03829
81.51713	0.03067
82.02345	0.02569
82.37477	0.01945
82.51944	0.01451
82.97409	0.01111
83.27375	0.00815
83.41841	0.00496
83.87306	0.00335
84.21405	0.00244
84.36905	0.00026
84.79270	-0.00126
85.18535	-0.00234
85.36101	-0.00387
85.91900	-0.00514
86.28065	-0.00582
86.44598	-0.00625
86.99363	-0.00616
87.39662	-0.00569
87.55161	-0.00594
88.08893	-0.00630
88.48158	-0.00670
88.67791	-0.00716
89.28756	-0.00768
89.69055	-0.00822
89.85588	-0.00879
90.42419	-0.00935