Black Body Radiation Experiment Wed, Jan 21, 2026 9:44 AM
Sensor Position (Degrees)	Light Intensity (Volts)
-0.01033	-0.00060
-0.01033	-0.00038
-0.01033	-0.00018
-0.01033	0.00000
-0.01033	0.00015
-0.01033	0.00026
-0.01033	0.00032
-0.01033	0.00029
-0.01033	0.00016
-0.01033	-0.00003
-0.01033	-0.00025
-0.01033	-0.00046
-0.01033	-0.00062
-0.01033	-0.00068
-0.01033	-0.00064
0.01033	-0.00051
0.01033	-0.00035
0.01033	-0.00019
0.02067	-0.00010
0.02067	-0.00012
0.04133	-0.00026
0.04133	-0.00053
0.03100	-0.00089
0.03100	-0.00130
0.03100	-0.00170
0.02067	-0.00203
0.03100	-0.00226
0.04133	-0.00236
0.05167	-0.00236
0.07233	-0.00229
0.11366	-0.00221
0.14466	-0.00219
0.26866	-0.00229
0.35132	-0.00255
0.40299	-0.00299
0.63031	-0.00357
0.84731	-0.00424
0.92997	-0.00493
1.22963	-0.00556
1.28129	-0.00606
1.32263	-0.00641
1.47762	-0.00658
1.61195	-0.00661
1.67395	-0.00654
1.81861	-0.00645
1.91161	-0.00639
1.96327	-0.00642
2.10793	-0.00654
2.20093	-0.00675
2.25260	-0.00703
2.35593	-0.00731
2.43859	-0.00755
2.47992	-0.00770
2.67625	-0.00775
2.80025	-0.00767
2.85191	-0.00749
3.21357	-0.00727
3.46156	-0.00704
3.60622	-0.00687
4.05054	-0.00680
4.33987	-0.00686
4.50519	-0.00708
4.86685	-0.00743
5.16651	-0.00787
5.30084	-0.00836
5.81749	-0.00883
6.15848	-0.00925
6.31347	-0.00957
6.88179	-0.00980
7.25377	-0.00991
7.45010	-0.00995
8.11141	-0.00993
8.57640	-0.00991
8.85539	-0.00990
9.53737	-0.00993
9.94036	-0.01000
10.15735	-0.01010
10.62234	-0.01021
10.96333	-0.01034
11.11832	-0.01047
11.64530	-0.01060
11.98629	-0.01073
12.11029	-0.01088
12.54428	-0.01104
12.83360	-0.01123
13.10226	-0.01145
13.50525	-0.01167
13.75324	-0.01189
13.86690	-0.01209
14.17689	-0.01229
14.35255	-0.01248
14.44555	-0.01266
14.73488	-0.01283
14.94154	-0.01300
15.12753	-0.01315
15.40652	-0.01328
15.53052	-0.01338
15.61318	-0.01342
15.86117	-0.01341
16.04717	-0.01334
16.23316	-0.01325
16.52249	-0.01315
16.71881	-0.01304
16.87381	-0.01290
17.26646	-0.01265
17.49379	-0.01213
17.60745	-0.01112
17.92778	-0.00932
18.14477	-0.00641
18.26877	-0.00210
18.65109	0.00380
18.90941	0.01135
19.06441	0.02036
19.48806	0.03043
19.80838	0.04093
20.10804	0.05110
20.58336	0.06011
20.84169	0.06718
21.03801	0.07172
21.54433	0.07339
21.79232	0.07217
22.04032	0.06832
22.43297	0.06233
22.67063	0.05485
22.78429	0.04659
23.19761	0.03818
23.50760	0.03017
23.67293	0.02292
24.14825	0.01662
24.40658	0.01132
24.50991	0.00698
24.79923	0.00347
24.91289	0.00066
24.96456	-0.00157
25.03689	-0.00334
25.05755	-0.00474
25.04722	-0.00584
25.04722	-0.00671
25.03689	-0.00740
25.02656	-0.00795
25.02656	-0.00844
25.02656	-0.00890
25.02656	-0.00935
25.03689	-0.00980
25.04722	-0.01023
25.05755	-0.01063
25.05755	-0.01099
25.06789	-0.01130
25.07822	-0.01156
25.07822	-0.01179
25.07822	-0.01201
25.07822	-0.01224
25.08855	-0.01250
25.14022	-0.01280
25.24355	-0.01313
25.31588	-0.01346
25.55354	-0.01375
25.70853	-0.01399
25.78087	-0.01414
26.05986	-0.01419
26.23552	-0.01417
26.42151	-0.01410
26.63851	-0.01401
26.78317	-0.01392
26.88650	-0.01388
27.12416	-0.01389
27.29982	-0.01398
27.40315	-0.01413
27.69247	-0.01431
27.90947	-0.01450
28.03346	-0.01467
28.35379	-0.01480
28.51911	-0.01484
28.61211	-0.01481
28.88077	-0.01470
29.07710	-0.01453
29.18043	-0.01435
29.51108	-0.01418
29.69708	-0.01407
29.79007	-0.01407
30.04840	-0.01418
30.24473	-0.01442
30.32739	-0.01476
30.60638	-0.01516
30.74071	-0.01558
30.80271	-0.01597
30.98870	-0.01630
31.09203	-0.01654
31.15403	-0.01667
31.30903	-0.01669
31.40202	-0.01662
31.44336	-0.01649
31.57769	-0.01633
31.69135	-0.01617
31.75335	-0.01605
31.97034	-0.01596
32.11500	-0.01591
32.21833	-0.01591
32.52832	-0.01593
32.77632	-0.01597
32.90031	-0.01599
33.25163	-0.01600
33.46863	-0.01597
33.60296	-0.01592
33.99561	-0.01585
34.24360	-0.01578
34.39860	-0.01571
34.79125	-0.01563
35.02891	-0.01555
35.17357	-0.01546
35.50423	-0.01536
35.72122	-0.01525
35.86589	-0.01514
36.21721	-0.01505
36.41354	-0.01500
36.53753	-0.01501
36.85785	-0.01510
37.08518	-0.01529
37.25051	-0.01556
37.66383	-0.01587
37.92216	-0.01617
38.07715	-0.01642
38.64547	-0.01658
38.93479	-0.01662
39.08979	-0.01653
39.52377	-0.01630
39.77176	-0.01596
39.95776	-0.01558
40.23675	-0.01522
40.43308	-0.01494
40.52607	-0.01479
40.76373	-0.01480
40.90840	-0.01497
41.08406	-0.01527
41.17705	-0.01567
41.28038	-0.01612
41.34238	-0.01653
41.43538	-0.01685
41.48704	-0.01704
41.58004	-0.01707
41.63171	-0.01695
41.67304	-0.01670
41.75570	-0.01635
41.87970	-0.01594
41.94170	-0.01551
41.99336	-0.01515
42.03469	-0.01488
42.05536	-0.01473
42.14836	-0.01472
42.23102	-0.01483
42.26202	-0.01506
42.38602	-0.01536
42.49968	-0.01570
42.56168	-0.01602
42.80967	-0.01629
42.96467	-0.01647
43.04733	-0.01656
43.24366	-0.01659
43.36765	-0.01655
43.56398	-0.01649
43.67764	-0.01642
43.83264	-0.01637
43.92564	-0.01635
44.08063	-0.01636
44.18396	-0.01639
44.34929	-0.01641
44.45262	-0.01639
44.50428	-0.01630
44.69028	-0.01615
44.81427	-0.01593
44.87627	-0.01567
45.04160	-0.01539
45.15526	-0.01515
45.21726	-0.01499
45.38259	-0.01494
45.50659	-0.01502
45.55825	-0.01522
45.72358	-0.01550
45.84758	-0.01582
45.91991	-0.01613
46.15757	-0.01639
46.32289	-0.01656
46.40556	-0.01665
46.70522	-0.01666
46.91188	-0.01663
47.01521	-0.01660
47.33553	-0.01661
47.58352	-0.01665
47.71785	-0.01672
48.10017	-0.01680
48.36883	-0.01686
48.50316	-0.01687
48.92681	-0.01678
49.20580	-0.01660
49.32980	-0.01633
49.71212	-0.01600
50.00145	-0.01566
50.12544	-0.01535
50.50776	-0.01513
50.79709	-0.01503
50.92108	-0.01505
51.31374	-0.01519
51.59273	-0.01542
51.74773	-0.01569
52.13005	-0.01595
52.40904	-0.01616
52.55370	-0.01629
52.97735	-0.01633
53.25635	-0.01630
53.40101	-0.01622
53.81433	-0.01611
54.08299	-0.01600
54.23798	-0.01589
54.69263	-0.01581
54.97163	-0.01573
55.11629	-0.01566
55.53994	-0.01557
55.82927	-0.01547
56.00493	-0.01537
56.45958	-0.01528
56.74890	-0.01521
56.91423	-0.01516
57.35855	-0.01512
57.69954	-0.01509
57.85454	-0.01506
58.37119	-0.01503
58.71218	-0.01499
58.88784	-0.01494
59.41482	-0.01490
59.80748	-0.01491
60.01414	-0.01500
60.61345	-0.01518
61.01644	-0.01544
61.24376	-0.01574
61.84308	-0.01605
62.25640	-0.01634
62.47339	-0.01658
63.11404	-0.01672
63.48603	-0.01676
63.69269	-0.01669
64.20934	-0.01653
64.57099	-0.01632
64.76732	-0.01610
65.29430	-0.01587
65.61463	-0.01565
65.80062	-0.01545
66.28627	-0.01528
66.58593	-0.01516
66.78226	-0.01510
67.25758	-0.01508
67.53657	-0.01509
67.72256	-0.01513
68.20821	-0.01518
68.50787	-0.01523
68.68353	-0.01527
69.20018	-0.01526
69.53084	-0.01517
69.71683	-0.01500
70.28515	-0.01476
70.68814	-0.01454
70.91546	-0.01443
71.51478	-0.01454
71.93843	-0.01497
72.15543	-0.01576
72.79607	-0.01689
73.16806	-0.01822
73.40572	-0.01940
74.02570	-0.01989
74.43902	-0.01905
74.67668	-0.01628
75.34833	-0.01117
75.80298	-0.00365
76.05097	0.00599
76.73295	0.01703
77.18760	0.02842
77.43559	0.03891
78.04524	0.04720
78.40690	0.05223
78.61356	0.05347
79.39887	0.05097
79.77086	0.04525
79.95685	0.03723
80.41150	0.02801
80.75249	0.01871
81.19681	0.01026
81.50680	0.00332
81.66180	-0.00184
82.11645	-0.00528
82.41611	-0.00731
82.57110	-0.00834
83.04642	-0.00871
83.37708	-0.00872
83.54240	-0.00860
84.02806	-0.00847
84.38971	-0.00844
84.55504	-0.00854
85.10269	-0.00877
85.50568	-0.00916
85.74334	-0.00970
86.39432	-0.01042
86.81797	-0.01127
87.01430	-0.01218
87.64461	-0.01303
88.07860	-0.01367
88.31626	-0.01392
88.96724	-0.01364
89.41156	-0.01269
89.66988	-0.01091
90.42419	-0.00819